* Measurement data measured by REW V5.20.7
* Source: /Users/griff/Desktop/0 - REW Curves/Targets/Harman2015OE.txt
* Format: Comma/Tab/Space delimited data
* Dated: May 1, 2022 3:08:30 PM
* REW Settings:
*  C-weighting compensation: Off
*  Target level: 75.0 dB
* Note: Measurement imported from /Users/griff/Desktop/0 - REW Curves/Targets/Harman2015OE.txt Format: Comma/Tab/Space delimited data 958 values loaded, 20 Hz to 20,040 Hz log spaced
* Measurement: Harman2015OE
* Smoothing: 1/48 octave
* Frequency Step: 96 ppo
* Start Frequency: 20.0 Hz
*
* Freq(Hz) SPL(dB) Phase(degrees)
20.000000 93.470 0.1918
20.144928 93.470 0.1228
20.290907 93.471 0.0550
20.437943 93.471 -0.0115
20.586044 93.471 -0.0769
20.735220 93.471 -0.1413
20.885475 93.471 -0.2047
21.036819 93.470 -0.2673
21.189260 93.470 -0.3292
21.342806 93.469 -0.3906
21.497465 93.469 -0.4517
21.653244 93.468 -0.5127
21.810152 93.468 -0.5737
21.968197 93.467 -0.6349
22.127388 93.467 -0.6964
22.287733 93.466 -0.7584
22.449240 93.465 -0.8210
22.611916 93.465 -0.8843
22.775770 93.464 -0.9483
22.940813 93.463 -1.0131
23.107052 93.462 -1.0786
23.274494 93.461 -1.1450
23.443151 93.460 -1.2121
23.613029 93.458 -1.2800
23.784140 93.457 -1.3485
23.956490 93.455 -1.4177
24.130089 93.454 -1.4874
24.304945 93.452 -1.5577
24.481070 93.450 -1.6284
24.658470 93.449 -1.6996
24.837156 93.447 -1.7711
25.017136 93.445 -1.8430
25.198420 93.443 -1.9151
25.381018 93.440 -1.9874
25.564939 93.438 -2.0598
25.750193 93.436 -2.1325
25.936789 93.434 -2.2052
26.124737 93.432 -2.2780
26.314047 93.430 -2.3510
26.504730 93.428 -2.4240
26.696795 93.425 -2.4971
26.890251 93.423 -2.5702
27.085110 93.421 -2.6434
27.281380 93.419 -2.7166
27.479073 93.418 -2.7900
27.678198 93.416 -2.8635
27.878765 93.414 -2.9372
28.080786 93.413 -3.0110
28.284271 93.411 -3.0851
28.489231 93.410 -3.1595
28.695675 93.409 -3.2343
28.903616 93.407 -3.3094
29.113064 93.407 -3.3850
29.324030 93.406 -3.4612
29.536524 93.405 -3.5380
29.750557 93.405 -3.6154
29.966143 93.404 -3.6936
30.183290 93.404 -3.7726
30.402012 93.404 -3.8525
30.622318 93.404 -3.9334
30.844221 93.404 -4.0154
31.067732 93.404 -4.0986
31.292862 93.405 -4.1831
31.519623 93.405 -4.2688
31.748028 93.406 -4.3560
31.978086 93.407 -4.4447
32.209812 93.408 -4.5349
32.443218 93.409 -4.6268
32.678314 93.410 -4.7203
32.915115 93.411 -4.8155
33.153633 93.412 -4.9125
33.393879 93.413 -5.0112
33.635864 93.414 -5.1118
33.879604 93.415 -5.2141
34.125111 93.415 -5.3183
34.372395 93.416 -5.4243
34.621471 93.417 -5.5321
34.872353 93.418 -5.6417
35.125053 93.418 -5.7530
35.379585 93.419 -5.8660
35.635960 93.419 -5.9808
35.894192 93.419 -6.0971
36.154297 93.419 -6.2149
36.416286 93.418 -6.3341
36.680176 93.418 -6.4547
36.945976 93.417 -6.5766
37.213703 93.416 -6.6998
37.483368 93.415 -6.8242
37.754990 93.414 -6.9496
38.028580 93.412 -7.0760
38.304150 93.410 -7.2033
38.581718 93.408 -7.3314
38.861298 93.405 -7.4604
39.142902 93.403 -7.5900
39.426548 93.400 -7.7203
39.712250 93.397 -7.8511
40.000023 93.394 -7.9825
40.289879 93.390 -8.1143
40.581837 93.386 -8.2467
40.875908 93.383 -8.3795
41.172112 93.378 -8.5127
41.470463 93.374 -8.6463
41.770973 93.370 -8.7805
42.073662 93.365 -8.9150
42.378544 93.360 -9.0499
42.685635 93.355 -9.1852
42.994953 93.350 -9.3209
43.306511 93.345 -9.4572
43.620327 93.339 -9.5939
43.936417 93.333 -9.7310
44.254799 93.328 -9.8687
44.575489 93.322 -10.0070
44.898502 93.315 -10.1458
45.223854 93.309 -10.2852
45.551563 93.302 -10.4252
45.881649 93.296 -10.5658
46.214127 93.289 -10.7071
46.549015 93.282 -10.8490
46.886330 93.275 -10.9917
47.226086 93.267 -11.1350
47.568306 93.259 -11.2793
47.913006 93.252 -11.4241
48.260204 93.244 -11.5698
48.609917 93.235 -11.7163
48.962166 93.227 -11.8635
49.316967 93.218 -12.0116
49.674339 93.209 -12.1606
50.034302 93.200 -12.3103
50.396870 93.191 -12.4609
50.762066 93.181 -12.6124
51.129910 93.171 -12.7646
51.500420 93.161 -12.9176
51.873611 93.150 -13.0714
52.249508 93.140 -13.2260
52.628128 93.128 -13.3813
53.009495 93.117 -13.5374
53.393623 93.105 -13.6942
53.780537 93.093 -13.8517
54.170254 93.080 -14.0097
54.562794 93.067 -14.1684
54.958179 93.054 -14.3275
55.356430 93.040 -14.4872
55.757565 93.026 -14.6472
56.161606 93.012 -14.8076
56.568577 92.997 -14.9682
56.978497 92.982 -15.1292
57.391388 92.966 -15.2902
57.807270 92.950 -15.4512
58.226166 92.934 -15.6121
58.648098 92.917 -15.7729
59.073086 92.899 -15.9334
59.501152 92.881 -16.0935
59.932323 92.863 -16.2533
60.366619 92.844 -16.4124
60.804062 92.825 -16.5708
61.244675 92.805 -16.7284
61.688480 92.785 -16.8851
62.135502 92.764 -17.0408
62.585762 92.743 -17.1954
63.039284 92.721 -17.3488
63.496094 92.699 -17.5008
63.956211 92.676 -17.6515
64.419662 92.653 -17.8006
64.886475 92.630 -17.9483
65.356667 92.606 -18.0943
65.830269 92.581 -18.2386
66.307304 92.557 -18.3810
66.787796 92.532 -18.5217
67.271767 92.506 -18.6604
67.759247 92.480 -18.7972
68.250259 92.454 -18.9320
68.744827 92.427 -19.0646
69.242981 92.400 -19.1951
69.744743 92.372 -19.3235
70.250145 92.344 -19.4497
70.759209 92.316 -19.5735
71.271957 92.288 -19.6951
71.788422 92.259 -19.8143
72.308632 92.229 -19.9311
72.832611 92.200 -20.0456
73.360390 92.170 -20.1575
73.891991 92.140 -20.2670
74.427444 92.110 -20.3741
74.966774 92.079 -20.4787
75.510017 92.048 -20.5809
76.057198 92.017 -20.6805
76.608337 91.986 -20.7777
77.163475 91.954 -20.8724
77.722633 91.922 -20.9647
78.285843 91.891 -21.0547
78.853134 91.858 -21.1423
79.424538 91.826 -21.2275
80.000084 91.794 -21.3104
80.579796 91.761 -21.3911
81.163712 91.728 -21.4695
81.751854 91.695 -21.5457
82.344261 91.662 -21.6196
82.940964 91.628 -21.6915
83.541985 91.595 -21.7611
84.147362 91.560 -21.8286
84.757126 91.526 -21.8939
85.371307 91.492 -21.9572
85.989944 91.458 -22.0183
86.613060 91.424 -22.0772
87.240692 91.389 -22.1339
87.872871 91.354 -22.1885
88.509636 91.319 -22.2408
89.151016 91.284 -22.2908
89.797043 91.249 -22.3384
90.447746 91.213 -22.3839
91.103165 91.177 -22.4267
91.763336 91.141 -22.4670
92.428291 91.105 -22.5047
93.098068 91.068 -22.5399
93.772697 91.031 -22.5722
94.452209 90.994 -22.6017
95.136650 90.957 -22.6285
95.826050 90.919 -22.6521
96.520447 90.882 -22.6728
97.219872 90.844 -22.6903
97.924370 90.805 -22.7046
98.633972 90.767 -22.7156
99.348717 90.728 -22.7232
100.068642 90.689 -22.7275
100.793777 90.650 -22.7281
101.524170 90.611 -22.7251
102.259857 90.571 -22.7185
103.000877 90.531 -22.7080
103.747261 90.491 -22.6937
104.499054 90.451 -22.6756
105.256294 90.411 -22.6536
106.019028 90.371 -22.6275
106.787285 90.330 -22.5974
107.561111 90.290 -22.5634
108.340546 90.250 -22.5252
109.125626 90.209 -22.4831
109.916397 90.169 -22.4367
110.712898 90.128 -22.3862
111.515167 90.088 -22.3317
112.323250 90.047 -22.2732
113.137192 90.007 -22.2106
113.957031 89.965 -22.1441
114.782814 89.925 -22.0736
115.614578 89.885 -21.9993
116.452370 89.845 -21.9211
117.296234 89.806 -21.8392
118.146210 89.767 -21.7536
119.002342 89.727 -21.6644
119.864685 89.689 -21.5717
120.733276 89.650 -21.4756
121.608162 89.612 -21.3761
122.489388 89.574 -21.2734
123.376999 89.536 -21.1676
124.271042 89.499 -21.0587
125.171562 89.462 -20.9469
126.078606 89.426 -20.8325
126.992226 89.390 -20.7151
127.912460 89.355 -20.5952
128.839371 89.321 -20.4728
129.772995 89.286 -20.3480
130.713379 89.252 -20.2210
131.660583 89.219 -20.0917
132.614655 89.186 -19.9603
133.575638 89.154 -19.8271
134.543579 89.122 -19.6919
135.518539 89.091 -19.5551
136.500565 89.060 -19.4164
137.489700 89.029 -19.2762
138.486008 89.000 -19.1345
139.489532 88.970 -18.9913
140.500336 88.942 -18.8468
141.518463 88.913 -18.7009
142.543961 88.884 -18.5537
143.576889 88.856 -18.4054
144.617310 88.829 -18.2558
145.665268 88.802 -18.1051
146.720825 88.775 -17.9533
147.784027 88.748 -17.8003
148.854935 88.722 -17.6463
149.933594 88.696 -17.4912
151.020081 88.670 -17.3351
152.114441 88.645 -17.1778
153.216721 88.619 -17.0195
154.326996 88.594 -16.8599
155.445312 88.569 -16.6994
156.571732 88.545 -16.5375
157.706314 88.519 -16.3744
158.849121 88.495 -16.2101
160.000214 88.470 -16.0444
161.159637 88.446 -15.8775
162.327469 88.423 -15.7090
163.503754 88.398 -15.5392
164.688568 88.375 -15.3677
165.881973 88.351 -15.1946
167.084015 88.328 -15.0198
168.294769 88.304 -14.8434
169.514297 88.280 -14.6650
170.742661 88.257 -14.4849
171.979935 88.234 -14.3027
173.226166 88.211 -14.1186
174.481430 88.189 -13.9324
175.745789 88.166 -13.7442
177.019318 88.143 -13.5538
178.302078 88.120 -13.3613
179.594131 88.099 -13.1664
180.895538 88.077 -12.9695
182.206375 88.055 -12.7701
183.526718 88.034 -12.5686
184.856628 88.013 -12.3647
186.196182 87.991 -12.1586
187.545441 87.970 -11.9501
188.904465 87.950 -11.7395
190.273346 87.930 -11.5266
191.652145 87.910 -11.3114
193.040939 87.891 -11.0941
194.439789 87.872 -10.8746
195.848785 87.853 -10.6530
197.267990 87.835 -10.4293
198.697479 87.817 -10.2037
200.137329 87.800 -9.9762
201.587601 87.783 -9.7467
203.048386 87.767 -9.5156
204.519760 87.750 -9.2826
206.001801 87.735 -9.0481
207.494568 87.720 -8.8122
208.998154 87.706 -8.5747
210.512634 87.692 -8.3360
212.038101 87.680 -8.0960
213.574615 87.667 -7.8550
215.122269 87.655 -7.6130
216.681137 87.645 -7.3701
218.251297 87.634 -7.1266
219.832840 87.625 -6.8825
221.425842 87.617 -6.6379
223.030380 87.609 -6.3932
224.646545 87.603 -6.1483
226.274429 87.598 -5.9034
227.914108 87.593 -5.6588
229.565674 87.591 -5.4146
231.229202 87.588 -5.1709
232.904785 87.588 -4.9281
234.592514 87.589 -4.6861
236.292465 87.590 -4.4453
238.004730 87.594 -4.2059
239.729416 87.598 -3.9678
241.466599 87.603 -3.7316
243.216370 87.611 -3.4972
244.978821 87.619 -3.2649
246.754044 87.629 -3.0350
248.542130 87.640 -2.8074
250.343170 87.652 -2.5826
252.157257 87.666 -2.3606
253.984497 87.680 -2.1415
255.824966 87.695 -1.9257
257.678772 87.711 -1.7132
259.546021 87.729 -1.5040
261.426788 87.747 -1.2986
263.321198 87.766 -1.0970
265.229340 87.784 -0.8992
267.151306 87.805 -0.7052
269.087189 87.825 -0.5155
271.037109 87.846 -0.3298
273.001160 87.868 -0.1483
274.979431 87.890 0.0287
276.972046 87.913 0.2014
278.979095 87.935 0.3699
281.000702 87.958 0.5338
283.036957 87.982 0.6933
285.087952 88.005 0.8484
287.153809 88.029 0.9990
289.234650 88.053 1.1452
291.330566 88.077 1.2871
293.441681 88.102 1.4247
295.568085 88.126 1.5580
297.709900 88.151 1.6869
299.867218 88.176 1.8117
302.040192 88.200 1.9325
304.228912 88.225 2.0493
306.433472 88.251 2.1622
308.654022 88.274 2.2713
310.890656 88.299 2.3768
313.143494 88.323 2.4787
315.412659 88.347 2.5773
317.698273 88.370 2.6727
320.000458 88.392 2.7649
322.319305 88.413 2.8542
324.654968 88.433 2.9408
327.007538 88.451 3.0247
329.377167 88.469 3.1062
331.763977 88.485 3.1854
334.168091 88.499 3.2625
336.589600 88.511 3.3378
339.028656 88.523 3.4112
341.485413 88.533 3.4830
343.959961 88.543 3.5533
346.452423 88.551 3.6224
348.962952 88.559 3.6904
351.491669 88.567 3.7574
354.038727 88.575 3.8236
356.604248 88.582 3.8890
359.188354 88.589 3.9539
361.791168 88.596 4.0184
364.412842 88.603 4.0825
367.053528 88.610 4.1463
369.713348 88.617 4.2100
372.392456 88.624 4.2736
375.090973 88.632 4.3372
377.809052 88.639 4.4009
380.546814 88.647 4.4646
383.304413 88.654 4.5284
386.082001 88.661 4.5925
388.879700 88.669 4.6567
391.697693 88.677 4.7211
394.536102 88.685 4.7857
397.395081 88.693 4.8504
400.274780 88.700 4.9153
403.175323 88.708 4.9805
406.096893 88.717 5.0458
409.039642 88.726 5.1111
412.003723 88.734 5.1766
414.989258 88.742 5.2422
417.996429 88.752 5.3079
421.025391 88.760 5.3734
424.076324 88.768 5.4391
427.149353 88.778 5.5047
430.244659 88.787 5.5702
433.362396 88.796 5.6356
436.502716 88.806 5.7009
439.665802 88.815 5.7659
442.851807 88.825 5.8308
446.060883 88.834 5.8953
449.293213 88.844 5.9597
452.548981 88.854 6.0237
455.828339 88.864 6.0873
459.131470 88.874 6.1507
462.458527 88.884 6.2135
465.809692 88.894 6.2761
469.185150 88.905 6.3381
472.585052 88.914 6.3998
476.009613 88.925 6.4609
479.458984 88.936 6.5216
482.933350 88.946 6.5817
486.432892 88.957 6.6413
489.957794 88.968 6.7005
493.508240 88.977 6.7591
497.084412 88.988 6.8173
500.686493 88.999 6.8749
504.314667 89.010 6.9320
507.969147 89.021 6.9887
511.650085 89.031 7.0448
515.357727 89.042 7.1004
519.092224 89.052 7.1556
522.853760 89.063 7.2105
526.642578 89.073 7.2649
530.458862 89.084 7.3189
534.302795 89.095 7.3726
538.174561 89.106 7.4261
542.074402 89.116 7.4793
546.002502 89.127 7.5323
549.959045 89.137 7.5851
553.944275 89.148 7.6379
557.958374 89.158 7.6906
562.001587 89.169 7.7434
566.074097 89.179 7.7963
570.176086 89.188 7.8493
574.307800 89.199 7.9025
578.469482 89.209 7.9560
582.661316 89.219 8.0098
586.883545 89.229 8.0641
591.136353 89.240 8.1187
595.419983 89.250 8.1738
599.734619 89.260 8.2296
604.080566 89.270 8.2859
608.458008 89.281 8.3428
612.867126 89.291 8.4003
617.308228 89.302 8.4585
621.781494 89.312 8.5175
626.287170 89.323 8.5771
630.825500 89.333 8.6374
635.396729 89.344 8.6984
640.001099 89.355 8.7600
644.638794 89.366 8.8224
649.310120 89.378 8.8854
654.015259 89.389 8.9490
658.754517 89.401 9.0132
663.528137 89.413 9.0778
668.336365 89.425 9.1428
673.179382 89.438 9.2083
678.057495 89.450 9.2741
682.971008 89.463 9.3400
687.920105 89.476 9.4061
692.905029 89.489 9.4723
697.926086 89.504 9.5386
702.983521 89.517 9.6047
708.077637 89.531 9.6706
713.208679 89.545 9.7363
718.376892 89.561 9.8016
723.582520 89.575 9.8664
728.825867 89.590 9.9308
734.107239 89.606 9.9947
739.426880 89.622 10.0579
744.785095 89.638 10.1205
750.182129 89.655 10.1822
755.618286 89.671 10.2433
761.093811 89.688 10.3035
766.609009 89.705 10.3629
772.164185 89.722 10.4214
777.759583 89.739 10.4789
783.395569 89.757 10.5355
789.072388 89.774 10.5914
794.790344 89.792 10.6463
800.549744 89.810 10.7003
806.350830 89.828 10.7536
812.193970 89.846 10.8062
818.079468 89.865 10.8580
824.007629 89.883 10.9093
829.978699 89.901 10.9601
835.993042 89.920 11.0104
842.050964 89.939 11.0603
848.152832 89.957 11.1102
854.298889 89.975 11.1599
860.489502 89.994 11.2098
866.724976 90.012 11.2597
873.005615 90.031 11.3101
879.331787 90.048 11.3610
885.703796 90.066 11.4127
892.121948 90.083 11.4652
898.586609 90.099 11.5185
905.098145 90.114 11.5732
911.656860 90.130 11.6292
918.263123 90.144 11.6867
924.917236 90.156 11.7460
931.619568 90.168 11.8071
938.370483 90.180 11.8703
945.170288 90.189 11.9356
952.019409 90.198 12.0033
958.918152 90.205 12.0735
965.866882 90.213 12.1462
972.865967 90.220 12.2216
979.915771 90.226 12.2998
987.016663 90.232 12.3810
994.169006 90.238 12.4651
1001.373169 90.244 12.5522
1008.629517 90.250 12.6422
1015.938477 90.257 12.7356
1023.300415 90.263 12.8320
1030.715698 90.271 12.9316
1038.184692 90.279 13.0343
1045.707764 90.287 13.1399
1053.285400 90.296 13.2486
1060.917969 90.306 13.3602
1068.605835 90.317 13.4747
1076.349365 90.328 13.5919
1084.149048 90.341 13.7115
1092.005249 90.355 13.8337
1099.918335 90.369 13.9581
1107.888794 90.385 14.0847
1115.916992 90.403 14.2133
1124.003418 90.423 14.3435
1132.148438 90.445 14.4754
1140.352417 90.468 14.6086
1148.615845 90.493 14.7430
1156.939209 90.520 14.8782
1165.322876 90.549 15.0142
1173.767334 90.581 15.1506
1182.272949 90.614 15.2872
1190.840210 90.649 15.4238
1199.469482 90.686 15.5604
1208.161377 90.724 15.6964
1216.916260 90.764 15.8317
1225.734497 90.804 15.9662
1234.616699 90.847 16.0996
1243.563232 90.890 16.2318
1252.574585 90.933 16.3624
1261.651245 90.978 16.4913
1270.793701 91.023 16.6183
1280.002441 91.070 16.7432
1289.277832 91.118 16.8659
1298.620483 91.166 16.9860
1308.030762 91.215 17.1037
1317.509277 91.264 17.2185
1327.056519 91.314 17.3303
1336.672974 91.366 17.4391
1346.359009 91.418 17.5446
1356.115234 91.471 17.6467
1365.942261 91.524 17.7453
1375.840454 91.578 17.8402
1385.810303 91.633 17.9314
1395.852417 91.690 18.0185
1405.967285 91.747 18.1017
1416.155518 91.804 18.1806
1426.417603 91.863 18.2551
1436.754028 91.922 18.3251
1447.165283 91.982 18.3906
1457.652100 92.044 18.4512
1468.214844 92.106 18.5068
1478.854126 92.168 18.5574
1489.570557 92.233 18.6026
1500.364624 92.297 18.6424
1511.236938 92.363 18.6764
1522.187988 92.430 18.7047
1533.218384 92.498 18.7268
1544.328735 92.566 18.7428
1555.519531 92.636 18.7522
1566.791504 92.707 18.7548
1578.145142 92.779 18.7505
1589.581055 92.852 18.7390
1601.099854 92.925 18.7202
1612.702026 93.001 18.6936
1624.388306 93.077 18.6592
1636.159302 93.154 18.6169
1648.015625 93.232 18.5667
1659.957886 93.312 18.5084
1671.986572 93.392 18.4422
1684.102417 93.474 18.3689
1696.306152 93.556 18.2892
1708.598267 93.639 18.2044
1720.979492 93.724 18.1167
1733.450439 93.809 18.0290
1746.011719 93.896 17.9450
1758.664062 93.984 17.8684
1771.408081 94.073 17.8018
1784.244385 94.163 17.7441
1797.173706 94.253 17.6888
1810.196777 94.345 17.6254
1823.314209 94.438 17.5420
1836.526733 94.532 17.4301
1849.834961 94.628 17.2864
1863.239624 94.725 17.1118
1876.741455 94.824 16.9096
1890.341064 94.925 16.6836
1904.039307 95.029 16.4367
1917.836792 95.136 16.1714
1931.734253 95.246 15.8889
1945.732422 95.359 15.5904
1959.832031 95.475 15.2761
1974.033813 95.595 14.9461
1988.338501 95.716 14.6001
2002.746826 95.841 14.2384
2017.259521 95.968 13.8603
2031.877441 96.096 13.4653
2046.601318 96.226 13.0535
2061.431885 96.356 12.6243
2076.369873 96.486 12.1774
2091.416016 96.617 11.7125
2106.571289 96.747 11.2292
2121.836426 96.876 10.7275
2137.212158 97.004 10.2071
2152.699219 97.132 9.6678
2168.298584 97.259 9.1096
2184.010986 97.385 8.5323
2199.837158 97.510 7.9357
2215.778076 97.633 7.3203
2231.834473 97.755 6.6857
2248.007324 97.877 6.0322
2264.297363 97.997 5.3600
2280.705322 98.116 4.6691
2297.232178 98.235 3.9599
2313.878906 98.353 3.2327
2330.646240 98.469 2.4877
2347.535156 98.583 1.7254
2364.546387 98.694 0.9460
2381.680908 98.800 0.1500
2398.939453 98.901 -0.6622
2416.323242 98.995 -1.4902
2433.833008 99.083 -2.3334
2451.469482 99.167 -3.1916
2469.233887 99.248 -4.0638
2487.126953 99.326 -4.9499
2505.149658 99.402 -5.8496
2523.302979 99.478 -6.7621
2541.587891 99.552 -7.6869
2560.005371 99.625 -8.6238
2578.556152 99.696 -9.5721
2597.241455 99.767 -10.5315
2616.062256 99.834 -11.5015
2635.019287 99.899 -12.4816
2654.113770 99.963 -13.4714
2673.346680 100.024 -14.4703
2692.718750 100.082 -15.4782
2712.231201 100.138 -16.4944
2731.885254 100.190 -17.5188
2751.681641 100.239 -18.5503
2771.621582 100.284 -19.5892
2791.705811 100.327 -20.6346
2811.935547 100.366 -21.6861
2832.312012 100.401 -22.7434
2852.836182 100.434 -23.8057
2873.509033 100.462 -24.8730
2894.331543 100.488 -25.9446
2915.305176 100.510 -27.0199
2936.430664 100.528 -28.0986
2957.709229 100.545 -29.1802
2979.142090 100.557 -30.2642
3000.730225 100.567 -31.3501
3022.474854 100.575 -32.4374
3044.376953 100.578 -33.5258
3066.437744 100.580 -34.6148
3088.658447 100.579 -35.7037
3111.040039 100.575 -36.7924
3133.583984 100.569 -37.8802
3156.291260 100.560 -38.9668
3179.163086 100.547 -40.0516
3202.200684 100.531 -41.1344
3225.405029 100.513 -42.2147
3248.777588 100.492 -43.2921
3272.319580 100.467 -44.3662
3296.032227 100.439 -45.4367
3319.916748 100.406 -46.5033
3343.974121 100.371 -47.5655
3368.206055 100.334 -48.6229
3392.613525 100.292 -49.6754
3417.197754 100.248 -50.7226
3441.960205 100.202 -51.7642
3466.902100 100.153 -52.7998
3492.024658 100.102 -53.8296
3517.329346 100.049 -54.8526
3542.817383 99.995 -55.8696
3568.489990 99.939 -56.8798
3594.348633 99.882 -57.8830
3620.394775 99.824 -58.8793
3646.629639 99.765 -59.8684
3673.054688 99.704 -60.8500
3699.671143 99.643 -61.8244
3726.480469 99.581 -62.7912
3753.484131 99.519 -63.7504
3780.683350 99.455 -64.7019
3808.079834 99.391 -65.6459
3835.674805 99.326 -66.5822
3863.469727 99.261 -67.5109
3891.466064 99.195 -68.4319
3919.665283 99.129 -69.3453
3948.068848 99.062 -70.2513
3976.678223 98.995 -71.1496
4005.494873 98.927 -72.0406
4034.520264 98.858 -72.9246
4063.756104 98.789 -73.8012
4093.203857 98.721 -74.6708
4122.864746 98.651 -75.5335
4152.740723 98.582 -76.3896
4182.833008 98.512 -77.2391
4213.143555 98.442 -78.0822
4243.673828 98.372 -78.9189
4274.425293 98.302 -79.7499
4305.399414 98.232 -80.5750
4336.598145 98.161 -81.3945
4368.022949 98.091 -82.2085
4399.675293 98.022 -83.0175
4431.557129 97.952 -83.8216
4463.669922 97.882 -84.6209
4496.015625 97.813 -85.4160
4528.595703 97.743 -86.2067
4561.411621 97.675 -86.9935
4594.465332 97.606 -87.7767
4627.758789 97.538 -88.5565
4661.293457 97.470 -89.3331
4695.071289 97.403 -90.1070
4729.093750 97.337 -90.8782
4763.362793 97.270 -91.6467
4797.879883 97.204 -92.4134
4832.647461 97.140 -93.1784
4867.666992 97.075 -93.9419
4902.939941 97.011 -94.7041
4938.468750 96.947 -95.4653
4974.254883 96.884 -96.2259
5010.300293 96.823 -96.9861
5046.606934 96.761 -97.7461
5083.176758 96.700 -98.5064
5120.011719 96.640 -99.2671
5157.113281 96.581 -100.0288
5194.483887 96.522 -100.7914
5232.125488 96.464 -101.5554
5270.039551 96.406 -102.3211
5308.228516 96.349 -103.0888
5346.694336 96.294 -103.8586
5385.438477 96.238 -104.6314
5424.463379 96.183 -105.4069
5463.771484 96.130 -106.1852
5503.364258 96.076 -106.9673
5543.244141 96.024 -107.7531
5583.412598 95.972 -108.5427
5623.872070 95.921 -109.3365
5664.625000 95.870 -110.1347
5705.673340 95.819 -110.9373
5747.019043 95.770 -111.7448
5788.664551 95.722 -112.5572
5830.611816 95.673 -113.3746
5872.862793 95.625 -114.1972
5915.419922 95.578 -115.0250
5958.285645 95.532 -115.8579
6001.461914 95.485 -116.6964
6044.951172 95.439 -117.5403
6088.755371 95.394 -118.3895
6132.876953 95.347 -119.2441
6177.318359 95.301 -120.1039
6222.081543 95.255 -120.9691
6267.169434 95.209 -121.8396
6312.583984 95.162 -122.7152
6358.327637 95.112 -123.5958
6404.402832 95.061 -124.4812
6450.812012 95.008 -125.3715
6497.557129 94.952 -126.2662
6544.641113 94.894 -127.1656
6592.066406 94.831 -128.0694
6639.835449 94.766 -128.9772
6687.950195 94.698 -129.8891
6736.414062 94.626 -130.8049
6785.229004 94.550 -131.7242
6834.397461 94.473 -132.6472
6883.922363 94.394 -133.5733
6933.806152 94.311 -134.5028
6984.051270 94.229 -135.4354
7034.660645 94.144 -136.3708
7085.636719 94.058 -137.3091
7136.981934 93.973 -138.2500
7188.699219 93.886 -139.1936
7240.791504 93.799 -140.1396
7293.261230 93.712 -141.0882
7346.111328 93.624 -142.0390
7399.344238 93.537 -142.9921
7452.962891 93.449 -143.9476
7506.970215 93.361 -144.9053
7561.368652 93.272 -145.8653
7616.161621 93.184 -146.8276
7671.351562 93.095 -147.7922
7726.941406 93.006 -148.7590
7782.934082 92.916 -149.7278
7839.332520 92.826 -150.6991
7896.139648 92.736 -151.6730
7953.358398 92.646 -152.6491
8010.991699 92.555 -153.6275
8069.042480 92.463 -154.6084
8127.514160 92.370 -155.5919
8186.409668 92.277 -156.5777
8245.731445 92.184 -157.5660
8305.483398 92.089 -158.5569
8365.667969 91.994 -159.5500
8426.289062 91.899 -160.5457
8487.349609 91.803 -161.5440
8548.852539 91.706 -162.5446
8610.800781 91.608 -163.5478
8673.198242 91.509 -164.5533
8736.047852 91.410 -165.5612
8799.352539 91.311 -166.5716
8863.116211 91.210 -167.5842
8927.341797 91.108 -168.5988
8992.033203 91.005 -169.6160
9057.193359 90.900 -170.6353
9122.825195 90.796 -171.6568
9188.932617 90.690 -172.6805
9255.519531 90.583 -173.7059
9322.588867 90.476 -174.7333
9390.144531 90.367 -175.7625
9458.189453 90.256 -176.7934
9526.727539 90.146 -177.8257
9595.761719 90.033 -178.8595
9665.296875 89.920 -179.8946
9735.335938 89.804 179.0691
9805.881836 89.688 178.0319
9876.939453 89.570 176.9938
9948.511719 89.451 175.9551
10020.602539 89.330 174.9160
10093.215820 89.208 173.8766
10166.355469 89.083 172.8370
10240.025391 88.957 171.7974
10314.228516 88.829 170.7580
10388.969727 88.699 169.7190
10464.252930 88.568 168.6803
10540.081055 88.433 167.6423
10616.458984 88.296 166.6049
10693.390625 88.158 165.5681
10770.878906 88.016 164.5319
10848.928711 87.872 163.4962
10927.544922 87.725 162.4609
11006.730469 87.575 161.4258
11086.490234 87.421 160.3907
11166.827148 87.265 159.3553
11247.746094 87.104 158.3192
11329.251953 86.940 157.2818
11411.348633 86.773 156.2426
11494.040039 86.601 155.2010
11577.331055 86.428 154.1563
11661.225586 86.251 153.1077
11745.727539 86.074 152.0546
11830.841797 85.898 150.9956
11916.573242 85.725 149.9300
12002.925781 85.557 148.8572
12089.904297 85.397 147.7754
12177.512695 85.250 146.6845
12265.755859 85.115 145.5825
12354.638672 84.995 144.4686
12444.165039 84.887 143.3422
12534.340820 84.792 142.2020
12625.169922 84.705 141.0472
12716.657227 84.625 139.8769
12808.807617 84.547 138.6904
12901.625977 84.471 137.4868
12995.116211 84.393 136.2658
13089.284180 84.311 135.0267
13184.134766 84.227 133.7696
13279.672852 84.140 132.4937
13375.903320 84.047 131.1995
13472.831055 83.952 129.8867
13570.460938 83.852 128.5557
13668.797852 83.749 127.2070
13767.847656 83.642 125.8411
13867.615234 83.531 124.4584
13968.105469 83.417 123.0601
14069.324219 83.299 121.6471
14171.276367 83.178 120.2202
14273.966797 83.053 118.7810
14377.401367 82.923 117.3309
14481.585938 82.792 115.8711
14586.525391 82.656 114.4035
14692.225586 82.517 112.9294
14798.691406 82.375 111.4510
14905.928711 82.228 109.9700
15013.943359 82.078 108.4883
15122.740234 81.924 107.0079
15232.326172 81.766 105.5308
15342.706055 81.603 104.0594
15453.885742 81.437 102.5956
15565.871094 81.267 101.1412
15678.667969 81.092 99.6989
15792.282227 80.913 98.2705
15906.719727 80.730 96.8583
16021.986328 80.542 95.4643
16138.087891 80.350 94.0905
16255.031250 80.155 92.7392
16372.822266 79.954 91.4123
16491.466797 79.748 90.1116
16610.970703 79.539 88.8394
16731.339844 79.325 87.5970
16852.582031 79.107 86.3864
16974.703125 78.885 85.2096
17097.708984 78.657 84.0679
17221.605469 78.427 82.9629
17346.400391 78.191 81.8961
17472.099609 77.952 80.8690
17598.708984 77.708 79.8828
17726.236328 77.460 78.9382
17854.687500 77.208 78.0367
17984.070312 76.951 77.1787
18114.390625 76.691 76.3650
18245.654297 76.428 75.5955
18377.869141 76.160 74.8708
18511.042969 75.888 74.1906
18645.181641 75.613 73.5547
18780.292969 75.334 72.9620
18916.382812 75.052 72.4118
19053.458984 74.767 71.9028
19191.527344 74.478 71.4333
19330.597656 74.187 71.0014
19470.675781 73.893 70.6052
19611.767578 73.597 70.2420
19753.882812 73.298 69.9094
19897.027344 72.983 69.6045
20041.208984 0.000 69.3246
