* Measurement data measured by REW V5.20.13
* Source: Microphone (Realtek(R) Audio), MICROPHONE (Master Volume), L, volume: 0.250
* Format: 256k Log Swept Sine, 1 sweep at -12.0 dBFS with no timing reference
* Dated: Jan 4, 2023 4:05:04 PM
* REW Settings:
*  C-weighting compensation: Off
*  Target level: 75.0 dB
* Note: 
* Measurement: AudioSense DT200 L
* Smoothing: 1/24 octave
* Frequency Step: 1/48 octave
* Start Frequency: 1.000 Hz
*
* Freq(Hz)	SPL(dB)	Phase(degrees)
1.000000	81.955	-133.5772
1.015000	82.086	-135.7006
1.030000	82.217	-137.7578
1.044000	82.339	-139.6109
1.060000	82.477	-141.6412
1.075000	82.605	-143.4515
1.090000	82.731	-145.1633
1.106000	82.864	-146.8747
1.120000	82.981	-148.2887
1.138000	83.133	-150.0032
1.150000	83.235	-151.0857
1.172000	83.424	-152.9549
1.180000	83.493	-153.6001
1.206000	83.719	-155.5835
1.220000	83.842	-156.5865
1.241000	84.026	-158.0173
1.250000	84.105	-158.6065
1.265000	84.237	-159.5610
1.280000	84.368	-160.4855
1.315000	84.675	-162.5558
1.320000	84.718	-162.8445
1.340000	84.891	-163.9897
1.360000	85.063	-165.1287
1.380000	85.233	-166.2741
1.400000	85.401	-167.4386
1.430000	85.649	-169.2485
1.450000	85.810	-170.5155
1.475000	86.007	-172.1821
1.500000	86.201	-173.8889
1.525000	86.393	-175.6149
1.550000	86.583	-177.3524
1.575000	86.771	-179.0943
1.600000	86.956	179.1673
1.625000	87.139	177.4396
1.650000	87.319	175.7302
1.675000	87.498	174.0464
1.700000	87.673	172.3960
1.725000	87.847	170.7862
1.750000	88.018	169.2246
1.775000	88.187	167.7187
1.800000	88.353	166.2759
1.825000	88.517	164.9037
1.850000	88.678	163.6071
1.875000	88.836	162.3805
1.900000	88.992	161.2173
1.925000	89.144	160.1111
1.950000	89.294	159.0556
1.975000	89.442	158.0442
2.000000	89.588	157.0706
2.030000	89.759	155.9431
2.060000	89.928	154.8497
2.090000	90.095	153.7793
2.120000	90.259	152.7208
2.140000	90.368	152.0162
2.180000	90.582	150.5952
2.200000	90.688	149.8722
2.240000	90.897	148.4367
2.270000	91.051	147.3817
2.300000	91.201	146.3448
2.330000	91.349	145.3254
2.360000	91.495	144.3234
2.400000	91.686	143.0133
2.430000	91.827	142.0499
2.470000	92.013	140.7899
2.500000	92.151	139.8629
2.540000	92.333	138.6499
2.580000	92.514	137.4633
2.620000	92.692	136.3080
2.650000	92.823	135.4619
2.690000	92.996	134.3595
2.720000	93.124	133.5510
2.760000	93.293	132.4959
2.800000	93.459	131.4655
2.850000	93.665	130.2092
2.900000	93.867	128.9849
2.950000	94.068	127.7924
3.000000	94.266	126.6559
3.040000	94.423	125.7833
3.070000	94.539	125.1453
3.110000	94.692	124.3108
3.150000	94.843	123.4880
3.200000	95.030	122.4651
3.250000	95.214	121.4350
3.300000	95.395	120.3835
3.350000	95.573	119.3106
3.400000	95.749	118.2278
3.450000	95.922	117.1426
3.500000	96.092	116.0624
3.550000	96.259	114.9946
3.600000	96.423	113.9468
3.650000	96.583	112.9263
3.700000	96.740	111.9395
3.750000	96.894	110.9832
3.820000	97.104	109.6822
3.870000	97.251	108.7699
3.950000	97.478	107.3195
4.000000	97.615	106.4075
4.060000	97.776	105.2963
4.120000	97.931	104.1696
4.180000	98.082	103.0383
4.250000	98.251	101.7272
4.310000	98.391	100.6235
4.370000	98.527	99.5500
4.440000	98.681	98.3452
4.500000	98.807	97.3446
4.550000	98.908	96.5295
4.620000	99.045	95.4124
4.680000	99.159	94.4727
4.750000	99.288	93.3913
4.820000	99.412	92.3225
4.870000	99.497	91.5690
4.940000	99.612	90.5312
5.000000	99.707	89.6603
5.080000	99.831	88.5307
5.150000	99.936	87.5762
5.220000	100.038	86.6547
5.300000	100.150	85.6371
5.380000	100.259	84.6514
5.450000	100.352	83.8099
5.520000	100.444	82.9846
5.600000	100.546	82.0688
5.700000	100.670	80.9618
5.800000	100.791	79.8862
5.900000	100.909	78.8332
6.000000	101.025	77.8099
6.080000	101.116	77.0104
6.150000	101.195	76.3215
6.220000	101.272	75.6398
6.300000	101.359	74.8715
6.400000	101.465	73.9305
6.500000	101.569	73.0035
6.600000	101.670	72.0827
6.700000	101.768	71.1669
6.800000	101.863	70.2595
6.900000	101.955	69.3611
7.000000	102.044	68.4724
7.100000	102.129	67.5935
7.200000	102.211	66.7238
7.300000	102.290	65.8624
7.400000	102.365	65.0082
7.500000	102.436	64.1610
7.620000	102.518	63.1579
7.750000	102.601	62.0922
7.880000	102.679	61.0466
8.000000	102.746	60.1006
8.120000	102.810	59.1746
8.250000	102.873	58.1930
8.380000	102.933	57.2353
8.500000	102.987	56.3741
8.620000	103.038	55.5345
8.750000	103.090	54.6475
8.850000	103.128	53.9804
9.000000	103.182	53.0067
9.120000	103.224	52.2457
9.250000	103.273	51.4364
9.380000	103.322	50.6447
9.500000	103.365	49.9241
9.620000	103.407	49.2110
9.750000	103.451	48.4489
9.880000	103.481	47.6928
10.000000	103.489	46.9983
10.150000	103.480	46.1367
10.300000	103.464	45.2833
10.440000	103.440	44.4929
10.600000	103.413	43.6014
10.750000	103.402	42.7798
10.900000	103.400	41.9722
11.060000	103.395	41.1331
11.200000	103.389	40.4174
11.380000	103.385	39.5232
11.500000	103.386	38.9446
11.720000	103.392	37.9145
11.800000	103.394	37.5487
12.060000	103.399	36.3898
12.200000	103.389	35.7776
12.410000	103.368	34.8747
12.500000	103.365	34.4912
12.650000	103.365	33.8568
12.800000	103.370	33.2301
13.150000	103.405	31.8000
13.200000	103.410	31.6007
13.400000	103.425	30.8170
13.600000	103.437	30.0558
13.800000	103.448	29.3192
14.000000	103.454	28.5994
14.300000	103.459	27.5454
14.500000	103.467	26.8478
14.750000	103.481	25.9739
15.000000	103.496	25.0964
15.250000	103.498	24.2219
15.500000	103.491	23.3678
15.750000	103.477	22.5446
16.000000	103.461	21.7678
16.250000	103.443	21.0345
16.500000	103.425	20.3373
16.750000	103.407	19.6613
17.000000	103.387	18.9858
17.250000	103.369	18.3047
17.500000	103.356	17.6121
17.750000	103.344	16.9176
18.000000	103.333	16.2285
18.250000	103.321	15.5526
18.500000	103.312	14.8901
18.750000	103.305	14.2345
19.000000	103.300	13.5798
19.250000	103.293	12.9206
19.500000	103.283	12.2681
19.750000	103.270	11.6320
20.000000	103.254	11.0380
20.299999	103.237	10.3914
20.600000	103.227	9.8065
20.900000	103.225	9.2474
21.200001	103.228	8.6573
21.400000	103.231	8.2288
21.799999	103.230	7.3328
22.000000	103.225	6.9102
22.400000	103.205	6.2485
22.700001	103.185	5.9799
23.000000	103.169	5.8719
23.299999	103.177	5.7720
23.600000	103.214	5.5240
24.000000	103.283	4.8033
24.299999	103.311	4.0070
24.700001	103.281	2.8591
25.000000	103.211	2.1495
25.400000	103.090	1.5360
25.799999	102.989	1.1370
26.200001	102.915	0.6266
26.500000	102.851	0.0914
26.900000	102.720	-0.6638
27.200001	102.590	-1.0341
27.600000	102.418	-1.0644
28.000000	102.320	-0.7328
28.500000	102.341	-0.6156
29.000000	102.404	-1.4840
29.500000	102.377	-2.9103
30.000000	102.271	-3.9185
30.400000	102.217	-4.2473
30.700001	102.231	-4.4325
31.100000	102.301	-4.9779
31.500000	102.361	-5.9786
32.000000	102.335	-7.4329
32.500000	102.213	-8.2981
33.000000	102.119	-8.2908
33.500000	102.138	-7.9868
34.000000	102.223	-8.1323
34.500000	102.268	-8.8566
35.000000	102.221	-9.7219
35.500000	102.107	-10.2324
36.000000	101.992	-10.2782
36.500000	101.924	-10.1229
37.000000	101.903	-10.1442
37.500000	101.891	-10.5071
38.200001	101.822	-11.3238
38.700001	101.741	-11.8179
39.500000	101.625	-12.3474
40.000000	101.570	-12.6987
40.599998	101.506	-13.2004
41.200001	101.442	-13.6615
41.799999	101.386	-14.0193
42.500000	101.336	-14.3818
43.099998	101.302	-14.6943
43.700001	101.271	-15.0098
44.400002	101.226	-15.3981
45.000000	101.171	-15.7309
45.500000	101.114	-15.9579
46.200001	101.029	-16.1613
46.799999	100.968	-16.2859
47.500000	100.911	-16.5010
48.200001	100.869	-16.8358
48.700001	100.843	-17.1136
49.400002	100.800	-17.4880
50.000000	100.751	-17.7664
50.799999	100.673	-18.0797
51.500000	100.609	-18.3251
52.200001	100.558	-18.5629
53.000000	100.498	-18.8088
53.799999	100.433	-19.0037
54.500000	100.380	-19.1434
55.200001	100.321	-19.2665
56.000000	100.249	-19.4073
57.000000	100.182	-19.6605
58.000000	100.111	-19.9644
59.000000	100.026	-20.2113
60.000000	99.964	-20.4442
60.799999	99.926	-20.6277
61.500000	99.883	-20.7726
62.200001	99.829	-20.9100
63.000000	99.768	-21.0596
64.000000	99.705	-21.2128
65.000000	99.639	-21.3425
66.000000	99.562	-21.4963
67.000000	99.494	-21.6750
68.000000	99.441	-21.8451
69.000000	99.396	-21.9869
70.000000	99.350	-22.1088
71.000000	99.290	-22.2169
72.000000	99.214	-22.3004
73.000000	99.141	-22.3855
74.000000	99.084	-22.4970
75.000000	99.038	-22.6027
76.199997	98.986	-22.6893
77.500000	98.930	-22.7662
78.800003	98.868	-22.8459
80.000000	98.807	-22.9342
81.199997	98.737	-23.0320
82.500000	98.654	-23.1105
83.800003	98.578	-23.1567
85.000000	98.519	-23.1975
86.199997	98.467	-23.2441
87.500000	98.415	-23.3037
88.500000	98.378	-23.3452
90.000000	98.317	-23.3861
91.199997	98.259	-23.4117
92.500000	98.190	-23.4481
93.800003	98.121	-23.4855
95.000000	98.065	-23.5128
96.199997	98.015	-23.5334
97.500000	97.962	-23.5499
98.800003	97.915	-23.5639
100.000000	97.878	-23.5769
101.500000	97.835	-23.5875
103.000000	97.787	-23.5808
104.400002	97.730	-23.5607
106.000000	97.653	-23.5388
107.500000	97.587	-23.5256
109.000000	97.543	-23.5212
110.599998	97.509	-23.5209
112.000000	97.467	-23.5115
113.800003	97.386	-23.4744
115.000000	97.335	-23.4482
117.199997	97.279	-23.4017
118.000000	97.265	-23.3869
120.599998	97.185	-23.3425
122.000000	97.134	-23.2854
124.099998	97.065	-23.2147
125.000000	97.034	-23.1852
126.500000	96.991	-23.1369
128.000000	96.961	-23.1136
131.500000	96.874	-23.0675
132.000000	96.858	-23.0480
134.000000	96.793	-22.9475
136.000000	96.736	-22.8716
138.000000	96.690	-22.8103
140.000000	96.642	-22.7361
143.000000	96.553	-22.5970
145.000000	96.489	-22.5042
147.500000	96.415	-22.4000
150.000000	96.357	-22.2998
152.500000	96.318	-22.1981
155.000000	96.280	-22.0833
157.500000	96.243	-21.9524
160.000000	96.197	-21.8213
162.500000	96.141	-21.6735
165.000000	96.085	-21.4856
167.500000	96.032	-21.2709
170.000000	95.984	-21.0568
172.500000	95.933	-20.8497
175.000000	95.876	-20.5947
177.500000	95.825	-20.2564
180.000000	95.782	-19.8551
182.500000	95.741	-19.4408
185.000000	95.705	-19.0143
187.500000	95.691	-18.5472
190.000000	95.699	-18.0797
192.500000	95.720	-17.6979
195.000000	95.752	-17.4885
197.500000	95.795	-17.4615
200.000000	95.833	-17.5575
203.000000	95.849	-17.7493
206.000000	95.834	-17.9713
209.000000	95.809	-18.1638
212.000000	95.780	-18.2984
214.000000	95.756	-18.3707
218.000000	95.702	-18.5081
220.000000	95.673	-18.5590
224.000000	95.611	-18.5748
227.000000	95.572	-18.5261
230.000000	95.537	-18.4717
233.000000	95.495	-18.4392
236.000000	95.450	-18.4174
240.000000	95.400	-18.3417
243.000000	95.367	-18.2275
247.000000	95.324	-18.0580
250.000000	95.287	-17.9636
254.000000	95.234	-17.8774
258.000000	95.189	-17.7742
262.000000	95.150	-17.6055
265.000000	95.119	-17.4624
269.000000	95.078	-17.3154
272.000000	95.050	-17.2365
276.000000	95.017	-17.1071
280.000000	94.980	-16.9160
285.000000	94.926	-16.6763
290.000000	94.879	-16.5097
295.000000	94.846	-16.3478
300.000000	94.817	-16.1340
304.000000	94.781	-15.9536
307.000000	94.752	-15.8322
311.000000	94.716	-15.6982
315.000000	94.684	-15.5740
320.000000	94.641	-15.3756
325.000000	94.593	-15.1379
330.000000	94.558	-14.9200
335.000000	94.535	-14.7451
340.000000	94.504	-14.5719
345.000000	94.462	-14.3709
350.000000	94.420	-14.1456
355.000000	94.384	-13.9246
360.000000	94.355	-13.7408
365.000000	94.329	-13.5688
370.000000	94.298	-13.3574
375.000000	94.264	-13.1156
382.000000	94.222	-12.8083
387.000000	94.201	-12.6185
395.000000	94.159	-12.2990
400.000000	94.125	-12.0917
406.000000	94.089	-11.8480
412.000000	94.064	-11.6086
418.000000	94.035	-11.3718
425.000000	93.986	-11.0950
431.000000	93.942	-10.8623
437.000000	93.909	-10.6279
444.000000	93.876	-10.3236
450.000000	93.850	-10.0450
455.000000	93.826	-9.8254
462.000000	93.790	-9.5463
468.000000	93.762	-9.3086
475.000000	93.729	-8.9954
482.000000	93.689	-8.6506
487.000000	93.660	-8.4156
494.000000	93.629	-8.1215
500.000000	93.605	-7.8735
508.000000	93.565	-7.5097
515.000000	93.531	-7.1758
522.000000	93.507	-6.8458
530.000000	93.479	-6.4731
538.000000	93.435	-6.1006
545.000000	93.398	-5.7725
552.000000	93.373	-5.4417
560.000000	93.355	-5.0443
570.000000	93.320	-4.5375
580.000000	93.263	-4.0382
590.000000	93.210	-3.5292
600.000000	93.178	-3.0082
608.000000	93.162	-2.6039
615.000000	93.148	-2.2454
622.000000	93.130	-1.8720
630.000000	93.108	-1.4250
640.000000	93.083	-0.8558
650.000000	93.054	-0.3123
660.000000	93.019	0.2203
670.000000	92.992	0.8104
680.000000	92.972	1.4107
690.000000	92.946	2.0013
700.000000	92.916	2.6199
710.000000	92.902	3.2408
720.000000	92.899	3.8060
730.000000	92.884	4.3397
740.000000	92.857	4.9417
750.000000	92.842	5.6564
762.000000	92.847	6.5159
775.000000	92.834	7.1857
788.000000	92.813	7.8392
800.000000	92.825	8.7624
812.000000	92.848	9.7402
825.000000	92.859	10.4443
838.000000	92.867	10.9966
850.000000	92.888	11.7668
862.000000	92.910	12.7230
875.000000	92.925	13.5914
885.000000	92.940	14.0714
900.000000	92.987	14.7618
912.000000	93.033	15.4745
925.000000	93.077	16.3099
938.000000	93.120	17.0378
950.000000	93.170	17.5828
962.000000	93.229	18.0792
975.000000	93.291	18.6523
988.000000	93.347	19.2667
1000.000000	93.399	19.8091
1015.000000	93.472	20.3907
1030.000000	93.553	20.8671
1044.000000	93.625	21.2910
1060.000000	93.697	21.8066
1075.000000	93.757	22.2600
1090.000000	93.823	22.6106
1106.000000	93.906	22.9073
1120.000000	93.982	23.1660
1138.000000	94.074	23.5113
1150.000000	94.131	23.7188
1172.000000	94.227	24.0265
1180.000000	94.257	24.1252
1206.000000	94.331	24.4690
1220.000000	94.361	24.6662
1241.000000	94.421	24.9322
1250.000000	94.460	25.0369
1265.000000	94.549	25.2114
1280.000000	94.667	25.3970
1315.000000	94.947	25.8740
1320.000000	94.980	25.9455
1340.000000	95.090	26.2284
1360.000000	95.167	26.5078
1380.000000	95.221	26.8011
1400.000000	95.264	27.1169
1430.000000	95.330	27.6381
1450.000000	95.384	27.9867
1475.000000	95.457	28.4186
1500.000000	95.528	28.8767
1525.000000	95.600	29.3665
1550.000000	95.677	29.8601
1575.000000	95.765	30.3455
1600.000000	95.856	30.8382
1625.000000	95.946	31.3348
1650.000000	96.036	31.8364
1675.000000	96.130	32.3400
1700.000000	96.237	32.8273
1725.000000	96.356	33.2823
1750.000000	96.474	33.7256
1775.000000	96.588	34.1907
1800.000000	96.704	34.6504
1825.000000	96.832	35.0650
1850.000000	96.973	35.4306
1875.000000	97.120	35.7689
1900.000000	97.271	36.0968
1925.000000	97.423	36.4044
1950.000000	97.576	36.6729
1975.000000	97.734	36.8930
2000.000000	97.901	37.0633
2030.000000	98.110	37.2061
2060.000000	98.323	37.2926
2090.000000	98.540	37.3046
2120.000000	98.762	37.2115
2140.000000	98.916	37.0982
2180.000000	99.233	36.7720
2200.000000	99.392	36.5493
2240.000000	99.714	35.9373
2270.000000	99.957	35.3279
2300.000000	100.196	34.6074
2330.000000	100.429	33.7891
2360.000000	100.659	32.8577
2400.000000	100.964	31.3898
2430.000000	101.186	30.1168
2470.000000	101.455	28.2488
2500.000000	101.632	26.7437
2540.000000	101.841	24.5743
2580.000000	102.028	22.1996
2620.000000	102.183	19.6674
2650.000000	102.266	17.7271
2690.000000	102.324	15.1395
2720.000000	102.332	13.2064
2760.000000	102.312	10.6464
2800.000000	102.262	8.1604
2850.000000	102.145	5.2867
2900.000000	101.967	2.7629
2950.000000	101.756	0.6057
3000.000000	101.533	-1.2003
3040.000000	101.353	-2.3983
3070.000000	101.215	-3.1583
3110.000000	101.032	-4.0039
3150.000000	100.857	-4.6907
3200.000000	100.657	-5.3771
3250.000000	100.476	-5.8893
3300.000000	100.314	-6.2393
3350.000000	100.172	-6.4535
3400.000000	100.050	-6.5620
3450.000000	99.946	-6.5834
3500.000000	99.853	-6.5229
3550.000000	99.773	-6.3936
3600.000000	99.715	-6.2362
3650.000000	99.684	-6.0834
3700.000000	99.678	-5.9290
3750.000000	99.693	-5.7773
3820.000000	99.760	-5.6409
3870.000000	99.849	-5.6450
3950.000000	100.048	-5.8661
4000.000000	100.189	-6.1510
4060.000000	100.358	-6.6792
4120.000000	100.516	-7.4581
4180.000000	100.652	-8.5233
4250.000000	100.770	-10.1287
4310.000000	100.825	-11.8082
4370.000000	100.828	-13.7505
4440.000000	100.765	-16.2849
4500.000000	100.647	-18.6078
4550.000000	100.498	-20.5842
4620.000000	100.214	-23.2979
4680.000000	99.898	-25.4491
4750.000000	99.449	-27.6016
4820.000000	98.931	-29.2531
4870.000000	98.529	-30.0742
4940.000000	97.938	-30.6606
5000.000000	97.418	-30.6112
5080.000000	96.726	-29.7388
5150.000000	96.145	-28.2179
5220.000000	95.614	-26.0255
5300.000000	95.104	-22.8059
5380.000000	94.749	-19.0284
5450.000000	94.611	-15.5803
5520.000000	94.659	-12.4960
5600.000000	94.891	-10.1509
5700.000000	95.221	-9.7667
5800.000000	95.308	-11.6340
5900.000000	95.036	-13.8390
6000.000000	94.511	-14.8787
6080.000000	94.018	-14.6015
6150.000000	93.586	-13.6580
6220.000000	93.180	-12.2097
6300.000000	92.771	-10.0883
6400.000000	92.359	-6.9135
6500.000000	92.051	-3.3098
6600.000000	91.841	0.5862
6700.000000	91.747	4.6761
6800.000000	91.796	8.9525
6900.000000	92.029	13.1590
7000.000000	92.382	16.6785
7100.000000	92.792	19.7576
7200.000000	93.316	22.5999
7300.000000	93.999	24.9927
7400.000000	94.828	26.7068
7500.000000	95.770	27.4770
7620.000000	96.999	26.6611
7750.000000	98.311	22.8417
7880.000000	99.351	15.2822
8000.000000	99.828	5.3303
8120.000000	99.712	-5.7588
8250.000000	98.956	-16.3879
8380.000000	97.781	-23.7168
8500.000000	96.568	-27.3227
8620.000000	95.397	-28.4583
8750.000000	94.295	-27.6842
8850.000000	93.592	-26.1030
9000.000000	92.742	-22.6741
9120.000000	92.207	-19.3347
9250.000000	91.772	-15.4045
9380.000000	91.477	-11.3918
9500.000000	91.301	-7.7786
9620.000000	91.201	-4.3868
9750.000000	91.170	-1.1134
9880.000000	91.186	1.6240
10000.000000	91.205	3.6575
10150.000000	91.176	5.7332
10300.000000	91.063	7.7239
10440.000000	90.937	9.7111
10600.000000	90.816	11.8601
10750.000000	90.660	13.5946
10900.000000	90.420	15.4439
11060.000000	90.142	18.0244
11200.000000	89.979	20.7950
11380.000000	89.956	24.4807
11500.000000	90.053	26.5631
11720.000000	90.377	28.7739
11800.000000	90.505	28.9927
12060.000000	90.801	28.2617
12200.000000	90.882	27.6219
12410.000000	91.006	27.2173
12500.000000	91.092	27.3322
12650.000000	91.322	27.8284
12800.000000	91.706	28.4798
13150.000000	93.266	28.2941
13200.000000	93.538	27.7674
13400.000000	94.588	23.4211
13600.000000	95.284	14.8470
13800.000000	95.282	3.3258
14000.000000	94.483	-7.2196
14300.000000	92.389	-14.3987
14500.000000	90.965	-13.2748
14750.000000	89.537	-7.4984
15000.000000	88.578	1.0684
15250.000000	88.065	10.8703
15500.000000	87.926	20.4670
15750.000000	88.092	27.9498
16000.000000	88.473	31.2051
16250.000000	88.929	29.5534
16500.000000	89.372	24.2290
16750.000000	89.703	16.7223
17000.000000	89.844	8.0023
17250.000000	89.854	-0.9263
17500.000000	89.872	-9.3841
17750.000000	89.941	-17.6456
18000.000000	89.924	-26.1609
18250.000000	89.583	-34.2789
18500.000000	88.786	-40.1003
18750.000000	87.674	-42.0322
19000.000000	86.481	-40.3320
19250.000000	85.252	-36.0873
19500.000000	83.925	-29.9323
19750.000000	82.527	-23.1010
