* Measurement data measured by REW V5.20.13
* Source: Microphone (Realtek(R) Audio), MICROPHONE (Master Volume), L, volume: 0.250
* Format: 256k Log Swept Sine, 1 sweep at -12.0 dBFS with no timing reference
* Dated: Jan 4, 2023 4:07:02 PM
* REW Settings:
*  C-weighting compensation: Off
*  Target level: 75.0 dB
* Note: 
* Measurement: AudioSense DT200 R
* Smoothing: 1/24 octave
* Frequency Step: 1/48 octave
* Start Frequency: 1.000 Hz
*
* Freq(Hz)	SPL(dB)	Phase(degrees)
1.000000	88.838	-178.3975
1.015000	89.068	179.1378
1.030000	89.295	176.7720
1.044000	89.501	174.6618
1.060000	89.732	172.3770
1.075000	89.942	170.3681
1.090000	90.144	168.4985
1.106000	90.352	166.6687
1.120000	90.532	165.2081
1.138000	90.759	163.5098
1.150000	90.909	162.4818
1.172000	91.179	160.7944
1.180000	91.276	160.2389
1.206000	91.587	158.6230
1.220000	91.752	157.8593
1.241000	91.995	156.8310
1.250000	92.098	156.4274
1.265000	92.267	155.7959
1.280000	92.434	155.2072
1.315000	92.815	153.9426
1.320000	92.869	153.7689
1.340000	93.080	153.0764
1.360000	93.287	152.3693
1.380000	93.490	151.6237
1.400000	93.689	150.8153
1.430000	93.980	149.4322
1.450000	94.169	148.3613
1.475000	94.400	146.8261
1.500000	94.622	145.1665
1.525000	94.837	143.4231
1.550000	95.045	141.6120
1.575000	95.246	139.7493
1.600000	95.441	137.8511
1.625000	95.629	135.9335
1.650000	95.811	134.0125
1.675000	95.989	132.1043
1.700000	96.161	130.2249
1.725000	96.328	128.3903
1.750000	96.492	126.6168
1.775000	96.652	124.9204
1.800000	96.808	123.3171
1.825000	96.961	121.8232
1.850000	97.111	120.4424
1.875000	97.256	119.1496
1.900000	97.395	117.9348
1.925000	97.528	116.7894
1.950000	97.658	115.7046
1.975000	97.782	114.6715
2.000000	97.903	113.6815
2.030000	98.043	112.5379
2.060000	98.177	111.4284
2.090000	98.307	110.3379
2.120000	98.433	109.2513
2.140000	98.515	108.5215
2.180000	98.674	107.0288
2.200000	98.752	106.2572
2.240000	98.901	104.6996
2.270000	99.007	103.5357
2.300000	99.107	102.3786
2.330000	99.203	101.2310
2.360000	99.294	100.0957
2.400000	99.410	98.6058
2.430000	99.494	97.5100
2.470000	99.601	96.0827
2.500000	99.679	95.0413
2.540000	99.780	93.6967
2.580000	99.879	92.4061
2.620000	99.972	91.1556
2.650000	100.038	90.2422
2.690000	100.121	89.0584
2.720000	100.180	88.1969
2.760000	100.256	87.0845
2.800000	100.329	86.0152
2.850000	100.418	84.7412
2.900000	100.506	83.5399
2.950000	100.595	82.4183
3.000000	100.679	81.4067
3.040000	100.744	80.6674
3.070000	100.791	80.1456
3.110000	100.853	79.4830
3.150000	100.915	78.8467
3.200000	100.991	78.0693
3.250000	101.069	77.2886
3.300000	101.148	76.4800
3.350000	101.229	75.6497
3.400000	101.310	74.8185
3.450000	101.391	73.9942
3.500000	101.472	73.1845
3.550000	101.554	72.3972
3.600000	101.636	71.6399
3.650000	101.720	70.9203
3.700000	101.804	70.2515
3.750000	101.890	69.6403
3.820000	102.012	68.8491
3.870000	102.099	68.3056
3.950000	102.237	67.4244
4.000000	102.322	66.8387
4.060000	102.422	66.0754
4.120000	102.521	65.2623
4.180000	102.620	64.4190
4.250000	102.732	63.4200
4.310000	102.826	62.5702
4.370000	102.915	61.7449
4.440000	103.014	60.8267
4.500000	103.096	60.0624
4.550000	103.161	59.4369
4.620000	103.249	58.5737
4.680000	103.320	57.8405
4.750000	103.398	56.9871
4.820000	103.471	56.1266
4.870000	103.519	55.5074
4.940000	103.583	54.6450
5.000000	103.634	53.9195
5.080000	103.698	52.9877
5.150000	103.752	52.2198
5.220000	103.801	51.4910
5.300000	103.853	50.6974
5.380000	103.902	49.9407
5.450000	103.944	49.3049
5.520000	103.986	48.6912
5.600000	104.033	48.0266
5.700000	104.090	47.2429
5.800000	104.147	46.4937
5.900000	104.206	45.7636
6.000000	104.268	45.0671
6.080000	104.318	44.5282
6.150000	104.362	44.0626
6.220000	104.406	43.5963
6.300000	104.457	43.0654
6.400000	104.522	42.4122
6.500000	104.587	41.7592
6.600000	104.649	41.0944
6.700000	104.709	40.4116
6.800000	104.767	39.7192
6.900000	104.822	39.0274
7.000000	104.872	38.3445
7.100000	104.918	37.6632
7.200000	104.960	36.9878
7.300000	104.998	36.3267
7.400000	105.032	35.6825
7.500000	105.061	35.0497
7.620000	105.093	34.3154
7.750000	105.124	33.5638
7.880000	105.151	32.8569
8.000000	105.175	32.2354
8.120000	105.199	31.6386
8.250000	105.225	31.0264
8.380000	105.251	30.4345
8.500000	105.278	29.8959
8.620000	105.306	29.3713
8.750000	105.336	28.8068
8.850000	105.358	28.3680
9.000000	105.391	27.7084
9.120000	105.417	27.1779
9.250000	105.445	26.5966
9.380000	105.474	26.0095
9.500000	105.498	25.4694
9.620000	105.517	24.9327
9.750000	105.534	24.3536
9.880000	105.537	23.7838
10.000000	105.518	23.2683
10.150000	105.476	22.6364
10.300000	105.426	22.0229
10.440000	105.369	21.4684
10.600000	105.307	20.8516
10.750000	105.266	20.2882
10.900000	105.235	19.7389
11.060000	105.202	19.1632
11.200000	105.174	18.6688
11.380000	105.142	18.0425
11.500000	105.125	17.6298
11.720000	105.097	16.8838
11.800000	105.087	16.6158
12.060000	105.051	15.7571
12.200000	105.019	15.3022
12.410000	104.964	14.6293
12.500000	104.946	14.3438
12.650000	104.923	13.8719
12.800000	104.906	13.4044
13.150000	104.893	12.3279
13.200000	104.892	12.1761
13.400000	104.882	11.5734
13.600000	104.870	10.9825
13.800000	104.855	10.4048
14.000000	104.837	9.8451
14.300000	104.804	9.0411
14.500000	104.788	8.5308
14.750000	104.775	7.9161
15.000000	104.770	7.3237
15.250000	104.760	6.7436
15.500000	104.750	6.1699
15.750000	104.740	5.6000
16.000000	104.730	5.0336
16.250000	104.718	4.4774
16.500000	104.703	3.9354
16.750000	104.683	3.4146
17.000000	104.659	2.9163
17.250000	104.635	2.4379
17.500000	104.617	1.9751
17.750000	104.603	1.5168
18.000000	104.591	1.0580
18.250000	104.578	0.5931
18.500000	104.565	0.1224
18.750000	104.550	-0.3483
19.000000	104.530	-0.8133
19.250000	104.506	-1.2621
19.500000	104.478	-1.6917
19.750000	104.448	-2.1005
20.000000	104.418	-2.4925
20.299999	104.383	-2.9520
20.600000	104.350	-3.4109
20.900000	104.314	-3.8785
21.200001	104.274	-4.3578
21.400000	104.248	-4.6815
21.799999	104.203	-5.3316
22.000000	104.186	-5.6552
22.400000	104.161	-6.2963
22.700001	104.136	-6.7705
23.000000	104.091	-7.2347
23.299999	104.034	-7.6769
23.600000	103.980	-8.0828
24.000000	103.927	-8.5505
24.299999	103.904	-8.8504
24.700001	103.891	-9.2227
25.000000	103.889	-9.5292
25.400000	103.889	-10.0319
25.799999	103.883	-10.6550
26.200001	103.863	-11.3335
26.500000	103.837	-11.8124
26.900000	103.793	-12.3493
27.200001	103.760	-12.6736
27.600000	103.724	-13.0550
28.000000	103.691	-13.4638
28.500000	103.635	-14.0419
29.000000	103.548	-14.5204
29.500000	103.453	-14.7005
30.000000	103.393	-14.6548
30.400000	103.383	-14.6837
30.700001	103.389	-14.8463
31.100000	103.389	-15.2559
31.500000	103.360	-15.7615
32.000000	103.281	-16.2671
32.500000	103.199	-16.5163
33.000000	103.151	-16.6822
33.500000	103.126	-16.9850
34.000000	103.089	-17.4454
34.500000	103.027	-17.9161
35.000000	102.958	-18.3077
35.500000	102.897	-18.6570
36.000000	102.841	-19.0151
36.500000	102.781	-19.3550
37.000000	102.724	-19.6299
37.500000	102.680	-19.8661
38.200001	102.632	-20.2656
38.700001	102.590	-20.6094
39.500000	102.494	-21.0684
40.000000	102.424	-21.2474
40.599998	102.348	-21.4082
41.200001	102.285	-21.5858
41.799999	102.224	-21.8036
42.500000	102.147	-22.0728
43.099998	102.084	-22.2703
43.700001	102.033	-22.4481
44.400002	101.984	-22.7114
45.000000	101.937	-23.0020
45.500000	101.890	-23.2296
46.200001	101.822	-23.4567
46.799999	101.773	-23.6100
47.500000	101.723	-23.8409
48.200001	101.677	-24.1057
48.700001	101.649	-24.2729
49.400002	101.609	-24.4784
50.000000	101.562	-24.6575
50.799999	101.477	-24.8978
51.500000	101.401	-25.0966
52.200001	101.335	-25.2935
53.000000	101.263	-25.5000
53.799999	101.193	-25.6696
54.500000	101.142	-25.8105
55.200001	101.085	-25.9493
56.000000	101.013	-26.0864
57.000000	100.945	-26.2423
58.000000	100.882	-26.4124
59.000000	100.800	-26.5972
60.000000	100.728	-26.7657
60.799999	100.680	-26.8749
61.500000	100.631	-26.9662
62.200001	100.572	-27.0590
63.000000	100.509	-27.1618
64.000000	100.446	-27.2852
65.000000	100.378	-27.3958
66.000000	100.296	-27.4912
67.000000	100.226	-27.5845
68.000000	100.172	-27.6714
69.000000	100.127	-27.7521
70.000000	100.079	-27.8319
71.000000	100.015	-27.9069
72.000000	99.934	-27.9716
73.000000	99.853	-28.0131
74.000000	99.792	-28.0439
75.000000	99.749	-28.0966
76.199997	99.698	-28.1745
77.500000	99.638	-28.2505
78.800003	99.570	-28.3167
80.000000	99.503	-28.3599
81.199997	99.432	-28.3911
82.500000	99.351	-28.4277
83.800003	99.271	-28.4526
85.000000	99.207	-28.4678
86.199997	99.149	-28.4846
87.500000	99.094	-28.5042
88.500000	99.056	-28.5177
90.000000	98.995	-28.5330
91.199997	98.933	-28.5400
92.500000	98.858	-28.5430
93.800003	98.785	-28.5336
95.000000	98.726	-28.5192
96.199997	98.674	-28.5055
97.500000	98.621	-28.4922
98.800003	98.572	-28.4788
100.000000	98.531	-28.4563
101.500000	98.485	-28.4138
103.000000	98.434	-28.3727
104.400002	98.372	-28.3417
106.000000	98.289	-28.3052
107.500000	98.217	-28.2635
109.000000	98.171	-28.2146
110.599998	98.137	-28.1597
112.000000	98.098	-28.1160
113.800003	98.020	-28.0782
115.000000	97.966	-28.0530
117.199997	97.903	-27.9859
118.000000	97.885	-27.9561
120.599998	97.802	-27.8517
122.000000	97.751	-27.8013
124.099998	97.681	-27.7405
125.000000	97.650	-27.7161
126.500000	97.602	-27.6687
128.000000	97.564	-27.6092
131.500000	97.473	-27.4484
132.000000	97.458	-27.4267
134.000000	97.394	-27.3495
136.000000	97.333	-27.2787
138.000000	97.282	-27.2085
140.000000	97.227	-27.1213
143.000000	97.132	-26.9731
145.000000	97.069	-26.8804
147.500000	96.994	-26.7670
150.000000	96.933	-26.6395
152.500000	96.888	-26.4968
155.000000	96.846	-26.3524
157.500000	96.809	-26.2264
160.000000	96.764	-26.1028
162.500000	96.707	-25.9613
165.000000	96.645	-25.8021
167.500000	96.590	-25.6400
170.000000	96.548	-25.4795
172.500000	96.502	-25.3168
175.000000	96.445	-25.1411
177.500000	96.388	-24.9437
180.000000	96.338	-24.7269
182.500000	96.282	-24.4912
185.000000	96.217	-24.2335
187.500000	96.154	-23.9406
190.000000	96.097	-23.5939
192.500000	96.048	-23.1924
195.000000	96.012	-22.7451
197.500000	96.000	-22.2762
200.000000	96.007	-21.8274
203.000000	96.029	-21.3971
206.000000	96.059	-21.1719
209.000000	96.091	-21.1569
212.000000	96.106	-21.2877
214.000000	96.102	-21.4086
218.000000	96.072	-21.6144
220.000000	96.053	-21.6813
224.000000	96.008	-21.7527
227.000000	95.974	-21.7616
230.000000	95.940	-21.7442
233.000000	95.899	-21.7144
236.000000	95.854	-21.6764
240.000000	95.802	-21.5972
243.000000	95.770	-21.5195
247.000000	95.723	-21.4138
250.000000	95.681	-21.3469
254.000000	95.623	-21.2585
258.000000	95.574	-21.1383
262.000000	95.528	-20.9877
265.000000	95.492	-20.8720
269.000000	95.446	-20.7296
272.000000	95.413	-20.6207
276.000000	95.371	-20.4628
280.000000	95.329	-20.2977
285.000000	95.272	-20.0835
290.000000	95.224	-19.8676
295.000000	95.184	-19.6492
300.000000	95.144	-19.4219
304.000000	95.107	-19.2330
307.000000	95.077	-19.0977
311.000000	95.040	-18.9253
315.000000	95.003	-18.7559
320.000000	94.955	-18.5403
325.000000	94.908	-18.3227
330.000000	94.870	-18.1183
335.000000	94.842	-17.9176
340.000000	94.807	-17.7137
345.000000	94.765	-17.5067
350.000000	94.721	-17.2936
355.000000	94.678	-17.0803
360.000000	94.642	-16.8771
365.000000	94.611	-16.6667
370.000000	94.580	-16.4423
375.000000	94.546	-16.2173
382.000000	94.495	-15.9108
387.000000	94.463	-15.6939
395.000000	94.414	-15.3373
400.000000	94.380	-15.1008
406.000000	94.343	-14.8119
412.000000	94.310	-14.5307
418.000000	94.275	-14.2556
425.000000	94.226	-13.9387
431.000000	94.188	-13.6585
437.000000	94.155	-13.3719
444.000000	94.119	-13.0482
450.000000	94.095	-12.7812
455.000000	94.073	-12.5646
462.000000	94.040	-12.2648
468.000000	94.012	-12.0014
475.000000	93.979	-11.6832
482.000000	93.940	-11.3712
487.000000	93.914	-11.1597
494.000000	93.882	-10.8677
500.000000	93.854	-10.6076
508.000000	93.810	-10.2443
515.000000	93.775	-9.9207
522.000000	93.750	-9.6087
530.000000	93.719	-9.2611
538.000000	93.673	-8.8955
545.000000	93.635	-8.5499
552.000000	93.609	-8.1996
560.000000	93.585	-7.8083
570.000000	93.545	-7.3178
580.000000	93.490	-6.8197
590.000000	93.437	-6.3141
600.000000	93.402	-5.8050
608.000000	93.382	-5.3920
615.000000	93.365	-5.0143
622.000000	93.347	-4.6268
630.000000	93.324	-4.1910
640.000000	93.291	-3.6458
650.000000	93.257	-3.0926
660.000000	93.225	-2.5221
670.000000	93.198	-1.9418
680.000000	93.170	-1.3667
690.000000	93.147	-0.8002
700.000000	93.127	-0.2128
710.000000	93.105	0.4008
720.000000	93.086	1.0146
730.000000	93.072	1.6076
740.000000	93.059	2.1996
750.000000	93.046	2.8104
762.000000	93.030	3.5579
775.000000	93.014	4.3789
788.000000	93.006	5.1810
800.000000	93.012	5.9280
812.000000	93.026	6.6828
825.000000	93.038	7.4893
838.000000	93.044	8.2744
850.000000	93.057	8.9985
862.000000	93.075	9.7274
875.000000	93.096	10.5032
885.000000	93.115	11.0782
900.000000	93.153	11.9095
912.000000	93.193	12.5610
925.000000	93.239	13.2551
938.000000	93.287	13.9216
950.000000	93.332	14.5011
962.000000	93.381	15.0530
975.000000	93.435	15.6304
988.000000	93.491	16.1829
1000.000000	93.544	16.6585
1015.000000	93.614	17.2035
1030.000000	93.685	17.6991
1044.000000	93.750	18.1362
1060.000000	93.818	18.6026
1075.000000	93.874	18.9932
1090.000000	93.934	19.3380
1106.000000	94.007	19.6772
1120.000000	94.073	19.9549
1138.000000	94.157	20.2754
1150.000000	94.211	20.4655
1172.000000	94.298	20.7853
1180.000000	94.325	20.8976
1206.000000	94.395	21.2549
1220.000000	94.424	21.4329
1241.000000	94.479	21.6833
1250.000000	94.515	21.7952
1265.000000	94.599	21.9957
1280.000000	94.712	22.1978
1315.000000	94.990	22.6404
1320.000000	95.023	22.7053
1340.000000	95.131	22.9729
1360.000000	95.203	23.2499
1380.000000	95.252	23.5362
1400.000000	95.295	23.8213
1430.000000	95.363	24.2543
1450.000000	95.411	24.5647
1475.000000	95.472	24.9857
1500.000000	95.533	25.4119
1525.000000	95.597	25.8372
1550.000000	95.668	26.2883
1575.000000	95.742	26.7631
1600.000000	95.816	27.2369
1625.000000	95.894	27.7085
1650.000000	95.975	28.1849
1675.000000	96.061	28.6735
1700.000000	96.155	29.1578
1725.000000	96.255	29.6229
1750.000000	96.357	30.0801
1775.000000	96.460	30.5356
1800.000000	96.566	30.9770
1825.000000	96.680	31.3947
1850.000000	96.804	31.7891
1875.000000	96.934	32.1597
1900.000000	97.069	32.5061
1925.000000	97.209	32.8284
1950.000000	97.351	33.1221
1975.000000	97.494	33.3810
2000.000000	97.643	33.6084
2030.000000	97.831	33.8328
2060.000000	98.026	33.9868
2090.000000	98.224	34.0708
2120.000000	98.424	34.0923
2140.000000	98.563	34.0682
2180.000000	98.856	33.9019
2200.000000	99.006	33.7561
2240.000000	99.304	33.3470
2270.000000	99.527	32.9367
2300.000000	99.754	32.4263
2330.000000	99.986	31.8032
2360.000000	100.218	31.0623
2400.000000	100.516	29.8996
2430.000000	100.727	28.9039
2470.000000	100.997	27.4011
2500.000000	101.192	26.1288
2540.000000	101.438	24.2551
2580.000000	101.654	22.2214
2620.000000	101.836	20.0490
2650.000000	101.952	18.3317
2690.000000	102.077	15.9453
2720.000000	102.143	14.1141
2760.000000	102.194	11.6658
2800.000000	102.205	9.2473
2850.000000	102.167	6.3055
2900.000000	102.083	3.5181
2950.000000	101.956	0.9542
3000.000000	101.788	-1.3411
3040.000000	101.631	-2.9651
3070.000000	101.503	-4.0593
3110.000000	101.324	-5.3480
3150.000000	101.145	-6.4279
3200.000000	100.922	-7.4833
3250.000000	100.708	-8.2437
3300.000000	100.518	-8.7729
3350.000000	100.361	-9.1467
3400.000000	100.231	-9.4258
3450.000000	100.117	-9.6418
3500.000000	100.014	-9.8120
3550.000000	99.920	-9.9514
3600.000000	99.838	-10.0641
3650.000000	99.768	-10.1356
3700.000000	99.713	-10.1693
3750.000000	99.680	-10.1901
3820.000000	99.674	-10.2284
3870.000000	99.700	-10.2693
3950.000000	99.786	-10.4065
4000.000000	99.862	-10.5609
4060.000000	99.960	-10.8442
4120.000000	100.049	-11.2653
4180.000000	100.116	-11.8373
4250.000000	100.166	-12.7117
4310.000000	100.180	-13.6549
4370.000000	100.166	-14.7667
4440.000000	100.114	-16.2596
4500.000000	100.036	-17.6821
4550.000000	99.940	-18.9280
4620.000000	99.755	-20.6894
4680.000000	99.550	-22.1390
4750.000000	99.258	-23.6609
4820.000000	98.914	-24.8880
4870.000000	98.641	-25.5223
4940.000000	98.228	-26.0033
5000.000000	97.859	-25.9951
5080.000000	97.369	-25.3453
5150.000000	96.966	-24.1836
5220.000000	96.613	-22.5081
5300.000000	96.304	-20.0961
5380.000000	96.139	-17.4351
5450.000000	96.142	-15.2911
5520.000000	96.274	-13.7830
5600.000000	96.502	-13.3469
5700.000000	96.694	-14.9226
5800.000000	96.589	-17.8116
5900.000000	96.153	-20.2747
6000.000000	95.514	-21.2583
6080.000000	94.968	-20.9039
6150.000000	94.515	-19.9153
6220.000000	94.105	-18.4489
6300.000000	93.696	-16.3471
6400.000000	93.284	-13.2995
6500.000000	92.983	-9.9977
6600.000000	92.779	-6.5588
6700.000000	92.662	-3.0154
6800.000000	92.640	0.7344
6900.000000	92.757	4.5854
7000.000000	93.008	8.0773
7100.000000	93.353	11.1722
7200.000000	93.805	13.9428
7300.000000	94.390	16.3049
7400.000000	95.106	18.1108
7500.000000	95.930	19.1499
7620.000000	97.020	18.9967
7750.000000	98.226	16.4653
7880.000000	99.279	10.7277
8000.000000	99.919	2.4111
8120.000000	100.081	-7.8739
8250.000000	99.650	-18.9911
8380.000000	98.718	-27.8048
8500.000000	97.631	-33.0747
8620.000000	96.513	-35.8239
8750.000000	95.409	-36.6527
8850.000000	94.670	-36.2262
9000.000000	93.717	-34.4475
9120.000000	93.069	-32.3618
9250.000000	92.484	-29.6772
9380.000000	92.004	-26.7151
9500.000000	91.620	-23.8517
9620.000000	91.286	-20.9691
9750.000000	90.988	-17.9119
9880.000000	90.744	-14.9775
10000.000000	90.545	-12.4165
10150.000000	90.292	-9.4196
10300.000000	89.988	-6.5669
10440.000000	89.648	-3.8773
10600.000000	89.209	-0.4309
10750.000000	88.760	3.5100
10900.000000	88.315	8.3389
11060.000000	87.947	14.3993
11200.000000	87.790	20.1838
11380.000000	87.842	27.7649
11500.000000	88.053	32.6518
11720.000000	88.859	40.0413
11800.000000	89.251	41.7916
12060.000000	90.535	43.1593
12200.000000	91.083	41.4800
12410.000000	91.575	37.2399
12500.000000	91.654	35.3090
12650.000000	91.640	32.5585
12800.000000	91.520	30.7766
13150.000000	91.285	30.5909
13200.000000	91.276	30.9149
13400.000000	91.324	32.7073
13600.000000	91.551	34.8005
13800.000000	92.058	36.3867
14000.000000	92.881	36.4720
14300.000000	94.347	31.8753
14500.000000	95.034	25.5403
14750.000000	95.159	16.7164
15000.000000	94.523	11.2245
15250.000000	93.526	11.1278
15500.000000	92.558	15.4143
15750.000000	91.868	21.8400
16000.000000	91.675	27.7313
16250.000000	92.073	30.4952
16500.000000	92.801	28.9602
16750.000000	93.427	24.0737
17000.000000	93.778	17.5811
17250.000000	93.972	10.6076
17500.000000	94.172	3.0082
17750.000000	94.299	-6.0697
18000.000000	94.148	-15.8437
18250.000000	93.723	-24.3971
18500.000000	93.183	-31.2343
18750.000000	92.577	-36.8547
19000.000000	91.801	-41.0830
19250.000000	90.775	-43.1600
19500.000000	89.522	-42.8141
19750.000000	88.145	-40.8816
