* Measurement data measured by REW V5.30.9
* Source: Haruto Target Old Filtered
* Format: 
* Dated: Mar 12, 2024 3:32:17 PM
* REW Settings:
*  C-weighting compensation: Off
*  Target level: 75.0 dB
* Note: Measurement imported from C:\Users\HarutoHiroki\Desktop\Cryptonix Stuff\graphtools\graphtool\data\targets\Haruto 2021 Target.txt Format: Comma/Tab/Space delimited data 481 values loaded, 20 Hz to 20,040 Hz log spaced  PK       Fc   20.00 Hz  Gain   1.50 dB  Q  1.000 PK       Fc   70.00 Hz  Gain   1.70 dB  Q  0.700 PK       Fc   400.0 Hz  Gain   0.80 dB  Q  1.000 PK       Fc    1000 Hz  Gain  -0.70 dB  Q  3.000 PK       Fc    1300 Hz  Gain  -0.60 dB  Q  3.000 PK       Fc    1500 Hz  Gain  -0.40 dB  Q  5.000 PK       Fc    1900 Hz  Gain  -2.20 dB  Q  2.000 PK       Fc    3000 Hz  Gain   0.80 dB  Q  3.000 PK       Fc    3500 Hz  Gain   0.50 dB  Q  3.000 PK       Fc    5500 Hz  Gain  -1.30 dB  Q  1.000 PK       Fc    6900 Hz  Gain   0.20 dB  Q  6.000 PK       Fc    8000 Hz  Gain   1.60 dB  Q  3.000
* Measurement: Haruto Target 2024 v3 final
* Smoothing: 1/48 octave
* Frequency Step: 1/48 octave
* Start Frequency: 20.000 Hz
*
* Freq(Hz)	SPL(dB)
20.000000	106.196
20.299999	106.209
20.600000	106.231
20.900000	106.252
21.200001	106.271
21.400000	106.282
21.799999	106.302
22.000000	106.310
22.400000	106.326
22.700001	106.335
23.000000	106.344
23.299999	106.351
23.600000	106.357
24.000000	106.365
24.299999	106.369
24.700001	106.374
25.000000	106.377
25.400000	106.381
25.799999	106.384
26.200001	106.386
26.500000	106.388
26.900000	106.390
27.200001	106.392
27.600000	106.394
28.000000	106.395
28.500000	106.397
29.000000	106.398
29.500000	106.400
30.000000	106.398
30.400000	106.393
30.700001	106.389
31.100000	106.382
31.500000	106.375
32.000000	106.366
32.500000	106.356
33.000000	106.347
33.500000	106.337
34.000000	106.326
34.500000	106.315
35.000000	106.305
35.500000	106.293
36.000000	106.282
36.500000	106.270
37.000000	106.258
37.500000	106.246
38.200001	106.228
38.700001	106.215
39.500000	106.194
40.000000	106.182
40.599998	106.167
41.200001	106.152
41.799999	106.138
42.500000	106.120
43.099998	106.104
43.700001	106.087
44.400002	106.068
45.000000	106.050
45.500000	106.034
46.200001	106.012
46.799999	105.991
47.500000	105.967
48.200001	105.941
48.700001	105.922
49.400002	105.894
50.000000	105.869
50.799999	105.834
51.500000	105.803
52.200001	105.769
53.000000	105.729
53.799999	105.688
54.500000	105.651
55.200001	105.613
56.000000	105.568
57.000000	105.510
58.000000	105.451
59.000000	105.390
60.000000	105.327
60.799999	105.278
61.500000	105.234
62.200001	105.190
63.000000	105.139
64.000000	105.074
65.000000	105.008
66.000000	104.940
67.000000	104.871
68.000000	104.801
69.000000	104.729
70.000000	104.656
71.000000	104.581
72.000000	104.504
73.000000	104.426
74.000000	104.348
75.000000	104.269
76.199997	104.174
77.500000	104.071
78.800003	103.969
80.000000	103.874
81.199997	103.780
82.500000	103.678
83.800003	103.575
85.000000	103.481
86.199997	103.387
87.500000	103.285
88.500000	103.207
90.000000	103.091
91.199997	102.999
92.500000	102.901
93.800003	102.803
95.000000	102.715
96.199997	102.628
97.500000	102.536
98.800003	102.445
100.000000	102.363
101.500000	102.261
103.000000	102.162
104.400002	102.070
106.000000	101.966
107.500000	101.869
109.000000	101.772
110.599998	101.671
112.000000	101.583
113.800003	101.471
115.000000	101.397
117.199997	101.264
118.000000	101.216
120.599998	101.062
122.000000	100.980
124.099998	100.860
125.000000	100.809
126.500000	100.725
128.000000	100.643
131.500000	100.454
132.000000	100.427
134.000000	100.323
136.000000	100.221
138.000000	100.120
140.000000	100.022
143.000000	99.879
145.000000	99.787
147.500000	99.675
150.000000	99.568
152.500000	99.466
155.000000	99.369
157.500000	99.275
160.000000	99.185
162.500000	99.098
165.000000	99.015
167.500000	98.935
170.000000	98.858
172.500000	98.784
175.000000	98.713
177.500000	98.646
180.000000	98.581
182.500000	98.519
185.000000	98.460
187.500000	98.405
190.000000	98.352
192.500000	98.302
195.000000	98.254
197.500000	98.211
200.000000	98.171
203.000000	98.129
206.000000	98.093
209.000000	98.061
212.000000	98.032
214.000000	98.014
218.000000	97.983
220.000000	97.969
224.000000	97.945
227.000000	97.930
230.000000	97.917
233.000000	97.906
236.000000	97.896
240.000000	97.887
243.000000	97.880
247.000000	97.873
250.000000	97.866
254.000000	97.855
258.000000	97.843
262.000000	97.830
265.000000	97.821
269.000000	97.811
272.000000	97.804
276.000000	97.795
280.000000	97.787
285.000000	97.779
290.000000	97.773
295.000000	97.767
300.000000	97.763
304.000000	97.759
307.000000	97.757
311.000000	97.755
315.000000	97.752
320.000000	97.747
325.000000	97.744
330.000000	97.740
335.000000	97.735
340.000000	97.732
345.000000	97.727
350.000000	97.722
355.000000	97.717
360.000000	97.712
365.000000	97.706
370.000000	97.699
375.000000	97.693
382.000000	97.683
387.000000	97.675
395.000000	97.663
400.000000	97.656
406.000000	97.649
412.000000	97.644
418.000000	97.638
425.000000	97.630
431.000000	97.624
437.000000	97.617
444.000000	97.609
450.000000	97.602
455.000000	97.596
462.000000	97.587
468.000000	97.580
475.000000	97.572
482.000000	97.562
487.000000	97.556
494.000000	97.546
500.000000	97.537
508.000000	97.522
515.000000	97.509
522.000000	97.495
530.000000	97.479
538.000000	97.463
545.000000	97.449
552.000000	97.437
560.000000	97.422
570.000000	97.405
580.000000	97.389
590.000000	97.374
600.000000	97.361
608.000000	97.351
615.000000	97.344
622.000000	97.338
630.000000	97.331
640.000000	97.325
650.000000	97.318
660.000000	97.314
670.000000	97.309
680.000000	97.307
690.000000	97.304
700.000000	97.302
710.000000	97.299
720.000000	97.296
730.000000	97.295
740.000000	97.294
750.000000	97.294
762.000000	97.296
775.000000	97.299
788.000000	97.305
800.000000	97.312
812.000000	97.318
825.000000	97.325
838.000000	97.331
850.000000	97.334
862.000000	97.337
875.000000	97.340
885.000000	97.341
900.000000	97.344
912.000000	97.346
925.000000	97.352
938.000000	97.361
950.000000	97.373
962.000000	97.392
975.000000	97.420
988.000000	97.459
1000.000000	97.506
1015.000000	97.579
1030.000000	97.665
1044.000000	97.752
1060.000000	97.857
1075.000000	97.957
1090.000000	98.057
1106.000000	98.162
1120.000000	98.251
1138.000000	98.361
1150.000000	98.430
1172.000000	98.550
1180.000000	98.591
1206.000000	98.720
1220.000000	98.786
1241.000000	98.883
1250.000000	98.925
1265.000000	98.995
1280.000000	99.065
1315.000000	99.235
1320.000000	99.259
1340.000000	99.357
1360.000000	99.454
1380.000000	99.548
1400.000000	99.637
1430.000000	99.761
1450.000000	99.840
1475.000000	99.940
1500.000000	100.043
1525.000000	100.148
1550.000000	100.254
1575.000000	100.360
1600.000000	100.459
1625.000000	100.549
1650.000000	100.628
1675.000000	100.698
1700.000000	100.762
1725.000000	100.821
1750.000000	100.879
1775.000000	100.938
1800.000000	101.000
1825.000000	101.067
1850.000000	101.142
1875.000000	101.224
1900.000000	101.314
1925.000000	101.414
1950.000000	101.521
1975.000000	101.636
2000.000000	101.758
2030.000000	101.911
2060.000000	102.070
2090.000000	102.231
2120.000000	102.394
2140.000000	102.502
2180.000000	102.716
2200.000000	102.821
2240.000000	103.027
2270.000000	103.175
2300.000000	103.319
2330.000000	103.458
2360.000000	103.591
2400.000000	103.763
2430.000000	103.886
2470.000000	104.045
2500.000000	104.161
2540.000000	104.313
2580.000000	104.462
2620.000000	104.605
2650.000000	104.710
2690.000000	104.843
2720.000000	104.939
2760.000000	105.060
2800.000000	105.173
2850.000000	105.298
2900.000000	105.403
2950.000000	105.485
3000.000000	105.537
3040.000000	105.556
3070.000000	105.558
3110.000000	105.548
3150.000000	105.525
3200.000000	105.483
3250.000000	105.428
3300.000000	105.363
3350.000000	105.288
3400.000000	105.206
3450.000000	105.118
3500.000000	105.025
3550.000000	104.930
3600.000000	104.833
3650.000000	104.732
3700.000000	104.627
3750.000000	104.520
3820.000000	104.368
3870.000000	104.258
3950.000000	104.084
4000.000000	103.976
4060.000000	103.844
4120.000000	103.714
4180.000000	103.584
4250.000000	103.434
4310.000000	103.307
4370.000000	103.180
4440.000000	103.035
4500.000000	102.909
4550.000000	102.805
4620.000000	102.661
4680.000000	102.538
4750.000000	102.399
4820.000000	102.265
4870.000000	102.171
4940.000000	102.046
5000.000000	101.947
5080.000000	101.827
5150.000000	101.732
5220.000000	101.643
5300.000000	101.548
5380.000000	101.460
5450.000000	101.387
5520.000000	101.316
5600.000000	101.238
5700.000000	101.145
5800.000000	101.060
5900.000000	100.981
6000.000000	100.910
6080.000000	100.859
6150.000000	100.819
6220.000000	100.783
6300.000000	100.748
6400.000000	100.713
6500.000000	100.687
6600.000000	100.671
6700.000000	100.661
6800.000000	100.654
6900.000000	100.646
7000.000000	100.636
7100.000000	100.626
7200.000000	100.620
7300.000000	100.620
7400.000000	100.624
7500.000000	100.631
7620.000000	100.636
7750.000000	100.622
7880.000000	100.577
8000.000000	100.499
8120.000000	100.382
8250.000000	100.218
8380.000000	100.022
8500.000000	99.825
8620.000000	99.620
8750.000000	99.397
8850.000000	99.230
9000.000000	98.988
9120.000000	98.807
9250.000000	98.622
9380.000000	98.447
9500.000000	98.294
9620.000000	98.149
9750.000000	97.997
9880.000000	97.851
10000.000000	97.721
10150.000000	97.560
10300.000000	97.403
10440.000000	97.260
10600.000000	97.103
10750.000000	96.959
10900.000000	96.821
11060.000000	96.680
11200.000000	96.559
11380.000000	96.407
11500.000000	96.307
11720.000000	96.125
11800.000000	96.059
12060.000000	95.847
12200.000000	95.735
12410.000000	95.566
12500.000000	95.494
12650.000000	95.374
12800.000000	95.255
13150.000000	94.979
13200.000000	94.939
13400.000000	94.783
13600.000000	94.627
13800.000000	94.471
14000.000000	94.316
14300.000000	94.085
14500.000000	93.931
14750.000000	93.740
15000.000000	93.553
15250.000000	93.371
15500.000000	93.193
15750.000000	93.018
16000.000000	92.847
16250.000000	92.676
16500.000000	92.508
16750.000000	92.341
17000.000000	92.177
17250.000000	92.020
17500.000000	91.867
17750.000000	91.716
18000.000000	91.566
18250.000000	91.417
18500.000000	91.270
18750.000000	91.123
19000.000000	90.976
19250.000000	90.831
19500.000000	90.689
19750.000000	90.565
20000.000000	90.496
